# Cantera Thermodynamics
# Mechanism diatomic
# Computation done on 08-Feb-2020 14:37:43
# Species NO(X)
# Standard state T =    2.98150e+02 (K) P =    1.01325e+05 (Pa)
# C_P           2.98622e+01 (J/K mol)
# H             9.12708e+04 (J/mol)
# S             2.10747e+02 (J/K mol)
# C_P/R         3.59160e+00
# H/RT          3.68182e+01
# S/R           2.53470e+01
#     T            C_P/R           H/RT            S/R
   2.00000e+02,    3.66160e+00,    5.31105e+01,    2.39009e+01
   2.10000e+02,    3.65082e+00,    5.07555e+01,    2.40793e+01
   2.20000e+02,    3.64069e+00,    4.86142e+01,    2.42489e+01
   2.30000e+02,    3.63132e+00,    4.66586e+01,    2.44105e+01
   2.40000e+02,    3.62281e+00,    4.48656e+01,    2.45648e+01
   2.50000e+02,    3.61521e+00,    4.32157e+01,    2.47126e+01
   2.60000e+02,    3.60854e+00,    4.16925e+01,    2.48542e+01
   2.70000e+02,    3.60281e+00,    4.02819e+01,    2.49903e+01
   2.80000e+02,    3.59800e+00,    3.89718e+01,    2.51212e+01
   2.90000e+02,    3.59411e+00,    3.77520e+01,    2.52474e+01
   3.00000e+02,    3.59111e+00,    3.66133e+01,    2.53692e+01
   3.10000e+02,    3.58896e+00,    3.55481e+01,    2.54869e+01
   3.20000e+02,    3.58765e+00,    3.45493e+01,    2.56009e+01
   3.30000e+02,    3.58714e+00,    3.36111e+01,    2.57113e+01
   3.40000e+02,    3.58738e+00,    3.27280e+01,    2.58183e+01
   3.50000e+02,    3.58836e+00,    3.18954e+01,    2.59223e+01
   3.60000e+02,    3.59003e+00,    3.11091e+01,    2.60235e+01
   3.70000e+02,    3.59235e+00,    3.03654e+01,    2.61218e+01
   3.80000e+02,    3.59530e+00,    2.96609e+01,    2.62177e+01
   3.90000e+02,    3.59884e+00,    2.89926e+01,    2.63111e+01
   4.00000e+02,    3.60293e+00,    2.83578e+01,    2.64023e+01
   4.10000e+02,    3.60755e+00,    2.77541e+01,    2.64913e+01
   4.20000e+02,    3.61265e+00,    2.71792e+01,    2.65783e+01
   4.30000e+02,    3.61822e+00,    2.66312e+01,    2.66634e+01
   4.40000e+02,    3.62421e+00,    2.61083e+01,    2.67466e+01
   4.50000e+02,    3.63060e+00,    2.56087e+01,    2.68281e+01
   4.60000e+02,    3.63736e+00,    2.51310e+01,    2.69080e+01
   4.70000e+02,    3.64447e+00,    2.46737e+01,    2.69863e+01
   4.80000e+02,    3.65190e+00,    2.42357e+01,    2.70631e+01
   4.90000e+02,    3.65961e+00,    2.38157e+01,    2.71385e+01
   5.00000e+02,    3.66760e+00,    2.34127e+01,    2.72125e+01
   5.10000e+02,    3.67582e+00,    2.30256e+01,    2.72852e+01
   5.20000e+02,    3.68427e+00,    2.26536e+01,    2.73567e+01
   5.30000e+02,    3.69291e+00,    2.22957e+01,    2.74269e+01
   5.40000e+02,    3.70173e+00,    2.19513e+01,    2.74960e+01
   5.50000e+02,    3.71071e+00,    2.16196e+01,    2.75640e+01
   5.60000e+02,    3.71982e+00,    2.12999e+01,    2.76310e+01
   5.70000e+02,    3.72905e+00,    2.09915e+01,    2.76969e+01
   5.80000e+02,    3.73838e+00,    2.06940e+01,    2.77618e+01
   5.90000e+02,    3.74779e+00,    2.04067e+01,    2.78258e+01
   6.00000e+02,    3.75726e+00,    2.01291e+01,    2.78889e+01
   6.10000e+02,    3.76679e+00,    1.98608e+01,    2.79511e+01
   6.20000e+02,    3.77635e+00,    1.96013e+01,    2.80124e+01
   6.30000e+02,    3.78594e+00,    1.93502e+01,    2.80729e+01
   6.40000e+02,    3.79553e+00,    1.91071e+01,    2.81326e+01
   6.50000e+02,    3.80511e+00,    1.88716e+01,    2.81915e+01
   6.60000e+02,    3.81468e+00,    1.86434e+01,    2.82497e+01
   6.70000e+02,    3.82422e+00,    1.84221e+01,    2.83071e+01
   6.80000e+02,    3.83372e+00,    1.82075e+01,    2.83639e+01
   6.90000e+02,    3.84317e+00,    1.79993e+01,    2.84199e+01
   7.00000e+02,    3.85257e+00,    1.77971e+01,    2.84753e+01
   7.10000e+02,    3.86189e+00,    1.76008e+01,    2.85300e+01
   7.20000e+02,    3.87114e+00,    1.74100e+01,    2.85841e+01
   7.30000e+02,    3.88031e+00,    1.72246e+01,    2.86375e+01
   7.40000e+02,    3.88939e+00,    1.70443e+01,    2.86904e+01
   7.50000e+02,    3.89838e+00,    1.68690e+01,    2.87426e+01
   7.60000e+02,    3.90727e+00,    1.66984e+01,    2.87943e+01
   7.70000e+02,    3.91605e+00,    1.65323e+01,    2.88455e+01
   7.80000e+02,    3.92472e+00,    1.63706e+01,    2.88961e+01
   7.90000e+02,    3.93328e+00,    1.62132e+01,    2.89461e+01
   8.00000e+02,    3.94173e+00,    1.60597e+01,    2.89956e+01
   8.10000e+02,    3.95006e+00,    1.59102e+01,    2.90446e+01
   8.20000e+02,    3.95828e+00,    1.57643e+01,    2.90932e+01
   8.30000e+02,    3.96637e+00,    1.56222e+01,    2.91412e+01
   8.40000e+02,    3.97435e+00,    1.54834e+01,    2.91887e+01
   8.50000e+02,    3.98221e+00,    1.53481e+01,    2.92358e+01
   8.60000e+02,    3.98995e+00,    1.52160e+01,    2.92824e+01
   8.70000e+02,    3.99758e+00,    1.50870e+01,    2.93286e+01
   8.80000e+02,    4.00509e+00,    1.49610e+01,    2.93743e+01
   8.90000e+02,    4.01250e+00,    1.48380e+01,    2.94196e+01
   9.00000e+02,    4.01980e+00,    1.47177e+01,    2.94645e+01
   9.10000e+02,    4.02699e+00,    1.46002e+01,    2.95090e+01
   9.20000e+02,    4.03409e+00,    1.44853e+01,    2.95530e+01
   9.30000e+02,    4.04110e+00,    1.43730e+01,    2.95967e+01
   9.40000e+02,    4.04802e+00,    1.42631e+01,    2.96399e+01
   9.50000e+02,    4.05487e+00,    1.41556e+01,    2.96828e+01
   9.60000e+02,    4.06164e+00,    1.40504e+01,    2.97253e+01
   9.70000e+02,    4.06835e+00,    1.39475e+01,    2.97674e+01
   9.80000e+02,    4.07500e+00,    1.38467e+01,    2.98092e+01
   9.90000e+02,    4.08160e+00,    1.37480e+01,    2.98506e+01
   1.00000e+03,    4.08817e+00,    1.36514e+01,    2.98916e+01
   1.01000e+03,    4.09447e+00,    1.35567e+01,    2.99324e+01
   1.02000e+03,    4.10065e+00,    1.34640e+01,    2.99727e+01
   1.03000e+03,    4.10673e+00,    1.33731e+01,    3.00128e+01
   1.04000e+03,    4.11271e+00,    1.32841e+01,    3.00525e+01
   1.05000e+03,    4.11858e+00,    1.31967e+01,    3.00919e+01
   1.06000e+03,    4.12436e+00,    1.31111e+01,    3.01309e+01
   1.07000e+03,    4.13003e+00,    1.30272e+01,    3.01697e+01
   1.08000e+03,    4.13561e+00,    1.29448e+01,    3.02081e+01
   1.09000e+03,    4.14110e+00,    1.28640e+01,    3.02463e+01
   1.10000e+03,    4.14649e+00,    1.27847e+01,    3.02841e+01
   1.11000e+03,    4.15179e+00,    1.27069e+01,    3.03217e+01
   1.12000e+03,    4.15701e+00,    1.26306e+01,    3.03589e+01
   1.13000e+03,    4.16213e+00,    1.25556e+01,    3.03959e+01
   1.14000e+03,    4.16718e+00,    1.24820e+01,    3.04326e+01
   1.15000e+03,    4.17214e+00,    1.24097e+01,    3.04690e+01
   1.16000e+03,    4.17702e+00,    1.23387e+01,    3.05051e+01
   1.17000e+03,    4.18182e+00,    1.22690e+01,    3.05410e+01
   1.18000e+03,    4.18654e+00,    1.22005e+01,    3.05766e+01
   1.19000e+03,    4.19118e+00,    1.21332e+01,    3.06120e+01
   1.20000e+03,    4.19575e+00,    1.20670e+01,    3.06471e+01
   1.21000e+03,    4.20025e+00,    1.20020e+01,    3.06819e+01
   1.22000e+03,    4.20467e+00,    1.19380e+01,    3.07165e+01
   1.23000e+03,    4.20903e+00,    1.18752e+01,    3.07508e+01
   1.24000e+03,    4.21331e+00,    1.18134e+01,    3.07849e+01
   1.25000e+03,    4.21753e+00,    1.17526e+01,    3.08188e+01
   1.26000e+03,    4.22168e+00,    1.16928e+01,    3.08524e+01
   1.27000e+03,    4.22577e+00,    1.16340e+01,    3.08858e+01
   1.28000e+03,    4.22979e+00,    1.15761e+01,    3.09190e+01
   1.29000e+03,    4.23375e+00,    1.15192e+01,    3.09519e+01
   1.30000e+03,    4.23765e+00,    1.14632e+01,    3.09846e+01
   1.31000e+03,    4.24149e+00,    1.14080e+01,    3.10171e+01
   1.32000e+03,    4.24528e+00,    1.13537e+01,    3.10494e+01
   1.33000e+03,    4.24900e+00,    1.13003e+01,    3.10814e+01
   1.34000e+03,    4.25267e+00,    1.12477e+01,    3.11133e+01
   1.35000e+03,    4.25628e+00,    1.11959e+01,    3.11449e+01
   1.36000e+03,    4.25984e+00,    1.11449e+01,    3.11763e+01
   1.37000e+03,    4.26335e+00,    1.10946e+01,    3.12075e+01
   1.38000e+03,    4.26680e+00,    1.10452e+01,    3.12386e+01
   1.39000e+03,    4.27021e+00,    1.09964e+01,    3.12694e+01
   1.40000e+03,    4.27356e+00,    1.09484e+01,    3.13000e+01
   1.41000e+03,    4.27686e+00,    1.09010e+01,    3.13304e+01
   1.42000e+03,    4.28012e+00,    1.08544e+01,    3.13607e+01
   1.43000e+03,    4.28333e+00,    1.08084e+01,    3.13907e+01
   1.44000e+03,    4.28649e+00,    1.07631e+01,    3.14206e+01
   1.45000e+03,    4.28961e+00,    1.07185e+01,    3.14502e+01
   1.46000e+03,    4.29269e+00,    1.06745e+01,    3.14797e+01
   1.47000e+03,    4.29572e+00,    1.06311e+01,    3.15091e+01
   1.48000e+03,    4.29870e+00,    1.05883e+01,    3.15382e+01
   1.49000e+03,    4.30165e+00,    1.05461e+01,    3.15671e+01
   1.50000e+03,    4.30455e+00,    1.05044e+01,    3.15959e+01
   1.51000e+03,    4.30742e+00,    1.04634e+01,    3.16245e+01
   1.52000e+03,    4.31024e+00,    1.04229e+01,    3.16530e+01
   1.53000e+03,    4.31303e+00,    1.03830e+01,    3.16813e+01
   1.54000e+03,    4.31577e+00,    1.03436e+01,    3.17094e+01
   1.55000e+03,    4.31848e+00,    1.03047e+01,    3.17373e+01
   1.56000e+03,    4.32116e+00,    1.02663e+01,    3.17651e+01
   1.57000e+03,    4.32379e+00,    1.02285e+01,    3.17927e+01
   1.58000e+03,    4.32640e+00,    1.01911e+01,    3.18202e+01
   1.59000e+03,    4.32896e+00,    1.01542e+01,    3.18475e+01
   1.60000e+03,    4.33150e+00,    1.01178e+01,    3.18746e+01
   1.61000e+03,    4.33400e+00,    1.00819e+01,    3.19016e+01
   1.62000e+03,    4.33646e+00,    1.00464e+01,    3.19285e+01
   1.63000e+03,    4.33890e+00,    1.00114e+01,    3.19552e+01
   1.64000e+03,    4.34130e+00,    9.97680e+00,    3.19817e+01
   1.65000e+03,    4.34367e+00,    9.94266e+00,    3.20081e+01
   1.66000e+03,    4.34602e+00,    9.90893e+00,    3.20343e+01
   1.67000e+03,    4.34833e+00,    9.87563e+00,    3.20605e+01
   1.68000e+03,    4.35061e+00,    9.84274e+00,    3.20864e+01
   1.69000e+03,    4.35286e+00,    9.81024e+00,    3.21122e+01
   1.70000e+03,    4.35509e+00,    9.77815e+00,    3.21379e+01
   1.71000e+03,    4.35729e+00,    9.74644e+00,    3.21635e+01
   1.72000e+03,    4.35946e+00,    9.71512e+00,    3.21889e+01
   1.73000e+03,    4.36160e+00,    9.68416e+00,    3.22142e+01
   1.74000e+03,    4.36372e+00,    9.65358e+00,    3.22393e+01
   1.75000e+03,    4.36581e+00,    9.62336e+00,    3.22643e+01
   1.76000e+03,    4.36787e+00,    9.59349e+00,    3.22892e+01
   1.77000e+03,    4.36991e+00,    9.56398e+00,    3.23140e+01
   1.78000e+03,    4.37193e+00,    9.53480e+00,    3.23386e+01
   1.79000e+03,    4.37392e+00,    9.50596e+00,    3.23631e+01
   1.80000e+03,    4.37589e+00,    9.47746e+00,    3.23875e+01
   1.81000e+03,    4.37783e+00,    9.44928e+00,    3.24117e+01
   1.82000e+03,    4.37975e+00,    9.42142e+00,    3.24358e+01
   1.83000e+03,    4.38165e+00,    9.39387e+00,    3.24598e+01
   1.84000e+03,    4.38353e+00,    9.36664e+00,    3.24837e+01
   1.85000e+03,    4.38538e+00,    9.33971e+00,    3.25075e+01
   1.86000e+03,    4.38722e+00,    9.31308e+00,    3.25311e+01
   1.87000e+03,    4.38903e+00,    9.28674e+00,    3.25547e+01
   1.88000e+03,    4.39082e+00,    9.26069e+00,    3.25781e+01
   1.89000e+03,    4.39259e+00,    9.23493e+00,    3.26014e+01
   1.90000e+03,    4.39435e+00,    9.20945e+00,    3.26246e+01
   1.91000e+03,    4.39608e+00,    9.18424e+00,    3.26476e+01
   1.92000e+03,    4.39779e+00,    9.15931e+00,    3.26706e+01
   1.93000e+03,    4.39949e+00,    9.13464e+00,    3.26934e+01
   1.94000e+03,    4.40116e+00,    9.11024e+00,    3.27162e+01
   1.95000e+03,    4.40282e+00,    9.08609e+00,    3.27388e+01
   1.96000e+03,    4.40446e+00,    9.06220e+00,    3.27613e+01
   1.97000e+03,    4.40608e+00,    9.03856e+00,    3.27838e+01
   1.98000e+03,    4.40768e+00,    9.01517e+00,    3.28061e+01
   1.99000e+03,    4.40927e+00,    8.99202e+00,    3.28283e+01
   2.00000e+03,    4.41084e+00,    8.96911e+00,    3.28504e+01
   2.01000e+03,    4.41239e+00,    8.94644e+00,    3.28724e+01
   2.02000e+03,    4.41393e+00,    8.92400e+00,    3.28943e+01
   2.03000e+03,    4.41545e+00,    8.90178e+00,    3.29161e+01
   2.04000e+03,    4.41696e+00,    8.87980e+00,    3.29378e+01
   2.05000e+03,    4.41845e+00,    8.85803e+00,    3.29594e+01
   2.06000e+03,    4.41992e+00,    8.83648e+00,    3.29809e+01
   2.07000e+03,    4.42138e+00,    8.81515e+00,    3.30023e+01
   2.08000e+03,    4.42282e+00,    8.79403e+00,    3.30236e+01
   2.09000e+03,    4.42425e+00,    8.77312e+00,    3.30448e+01
   2.10000e+03,    4.42567e+00,    8.75241e+00,    3.30660e+01
   2.11000e+03,    4.42707e+00,    8.73191e+00,    3.30870e+01
   2.12000e+03,    4.42846e+00,    8.71161e+00,    3.31079e+01
   2.13000e+03,    4.42983e+00,    8.69150e+00,    3.31288e+01
   2.14000e+03,    4.43120e+00,    8.67159e+00,    3.31495e+01
   2.15000e+03,    4.43254e+00,    8.65187e+00,    3.31702e+01
   2.16000e+03,    4.43388e+00,    8.63234e+00,    3.31908e+01
   2.17000e+03,    4.43520e+00,    8.61300e+00,    3.32112e+01
   2.18000e+03,    4.43651e+00,    8.59383e+00,    3.32316e+01
   2.19000e+03,    4.43781e+00,    8.57485e+00,    3.32519e+01
   2.20000e+03,    4.43909e+00,    8.55605e+00,    3.32722e+01
   2.21000e+03,    4.44037e+00,    8.53743e+00,    3.32923e+01
   2.22000e+03,    4.44163e+00,    8.51897e+00,    3.33123e+01
   2.23000e+03,    4.44288e+00,    8.50069e+00,    3.33323e+01
   2.24000e+03,    4.44411e+00,    8.48258e+00,    3.33522e+01
   2.25000e+03,    4.44534e+00,    8.46463e+00,    3.33720e+01
   2.26000e+03,    4.44656e+00,    8.44685e+00,    3.33917e+01
   2.27000e+03,    4.44776e+00,    8.42923e+00,    3.34113e+01
   2.28000e+03,    4.44896e+00,    8.41177e+00,    3.34309e+01
   2.29000e+03,    4.45014e+00,    8.39447e+00,    3.34504e+01
   2.30000e+03,    4.45131e+00,    8.37732e+00,    3.34698e+01
   2.31000e+03,    4.45248e+00,    8.36033e+00,    3.34891e+01
   2.32000e+03,    4.45363e+00,    8.34349e+00,    3.35083e+01
   2.33000e+03,    4.45477e+00,    8.32680e+00,    3.35275e+01
   2.34000e+03,    4.45591e+00,    8.31025e+00,    3.35465e+01
   2.35000e+03,    4.45703e+00,    8.29385e+00,    3.35656e+01
   2.36000e+03,    4.45815e+00,    8.27760e+00,    3.35845e+01
   2.37000e+03,    4.45925e+00,    8.26148e+00,    3.36033e+01
   2.38000e+03,    4.46035e+00,    8.24551e+00,    3.36221e+01
   2.39000e+03,    4.46143e+00,    8.22968e+00,    3.36408e+01
   2.40000e+03,    4.46251e+00,    8.21398e+00,    3.36594e+01
   2.41000e+03,    4.46358e+00,    8.19841e+00,    3.36780e+01
   2.42000e+03,    4.46464e+00,    8.18298e+00,    3.36965e+01
   2.43000e+03,    4.46569e+00,    8.16768e+00,    3.37149e+01
   2.44000e+03,    4.46674e+00,    8.15251e+00,    3.37332e+01
   2.45000e+03,    4.46777e+00,    8.13747e+00,    3.37515e+01
   2.46000e+03,    4.46880e+00,    8.12255e+00,    3.37697e+01
   2.47000e+03,    4.46982e+00,    8.10776e+00,    3.37878e+01
   2.48000e+03,    4.47083e+00,    8.09310e+00,    3.38059e+01
   2.49000e+03,    4.47183e+00,    8.07855e+00,    3.38239e+01
   2.50000e+03,    4.47283e+00,    8.06413e+00,    3.38418e+01
   2.51000e+03,    4.47382e+00,    8.04982e+00,    3.38597e+01
   2.52000e+03,    4.47480e+00,    8.03563e+00,    3.38775e+01
   2.53000e+03,    4.47577e+00,    8.02156e+00,    3.38952e+01
   2.54000e+03,    4.47674e+00,    8.00760e+00,    3.39129e+01
   2.55000e+03,    4.47770e+00,    7.99376e+00,    3.39304e+01
   2.56000e+03,    4.47865e+00,    7.98002e+00,    3.39480e+01
   2.57000e+03,    4.47960e+00,    7.96640e+00,    3.39654e+01
   2.58000e+03,    4.48054e+00,    7.95289e+00,    3.39828e+01
   2.59000e+03,    4.48147e+00,    7.93948e+00,    3.40002e+01
   2.60000e+03,    4.48240e+00,    7.92619e+00,    3.40174e+01
   2.61000e+03,    4.48332e+00,    7.91299e+00,    3.40346e+01
   2.62000e+03,    4.48423e+00,    7.89990e+00,    3.40518e+01
   2.63000e+03,    4.48514e+00,    7.88692e+00,    3.40689e+01
   2.64000e+03,    4.48604e+00,    7.87404e+00,    3.40859e+01
   2.65000e+03,    4.48693e+00,    7.86125e+00,    3.41029e+01
   2.66000e+03,    4.48782e+00,    7.84857e+00,    3.41198e+01
   2.67000e+03,    4.48870e+00,    7.83598e+00,    3.41366e+01
   2.68000e+03,    4.48958e+00,    7.82349e+00,    3.41534e+01
   2.69000e+03,    4.49045e+00,    7.81110e+00,    3.41701e+01
   2.70000e+03,    4.49132e+00,    7.79881e+00,    3.41868e+01
   2.71000e+03,    4.49218e+00,    7.78660e+00,    3.42034e+01
   2.72000e+03,    4.49303e+00,    7.77449e+00,    3.42199e+01
   2.73000e+03,    4.49388e+00,    7.76247e+00,    3.42364e+01
   2.74000e+03,    4.49473e+00,    7.75055e+00,    3.42529e+01
   2.75000e+03,    4.49556e+00,    7.73871e+00,    3.42692e+01
   2.76000e+03,    4.49640e+00,    7.72696e+00,    3.42855e+01
   2.77000e+03,    4.49723e+00,    7.71530e+00,    3.43018e+01
   2.78000e+03,    4.49805e+00,    7.70372e+00,    3.43180e+01
   2.79000e+03,    4.49887e+00,    7.69224e+00,    3.43342e+01
   2.80000e+03,    4.49968e+00,    7.68083e+00,    3.43503e+01
   2.81000e+03,    4.50049e+00,    7.66951e+00,    3.43663e+01
   2.82000e+03,    4.50129e+00,    7.65828e+00,    3.43823e+01
   2.83000e+03,    4.50209e+00,    7.64712e+00,    3.43982e+01
   2.84000e+03,    4.50289e+00,    7.63605e+00,    3.44141e+01
   2.85000e+03,    4.50368e+00,    7.62506e+00,    3.44299e+01
   2.86000e+03,    4.50447e+00,    7.61414e+00,    3.44457e+01
   2.87000e+03,    4.50525e+00,    7.60331e+00,    3.44614e+01
   2.88000e+03,    4.50603e+00,    7.59256e+00,    3.44771e+01
   2.89000e+03,    4.50680e+00,    7.58188e+00,    3.44927e+01
   2.90000e+03,    4.50757e+00,    7.57127e+00,    3.45083e+01
   2.91000e+03,    4.50833e+00,    7.56075e+00,    3.45238e+01
   2.92000e+03,    4.50909e+00,    7.55030e+00,    3.45393e+01
   2.93000e+03,    4.50985e+00,    7.53992e+00,    3.45547e+01
   2.94000e+03,    4.51060e+00,    7.52961e+00,    3.45701e+01
   2.95000e+03,    4.51135e+00,    7.51938e+00,    3.45854e+01
   2.96000e+03,    4.51210e+00,    7.50922e+00,    3.46007e+01
   2.97000e+03,    4.51284e+00,    7.49913e+00,    3.46159e+01
   2.98000e+03,    4.51358e+00,    7.48911e+00,    3.46311e+01
   2.99000e+03,    4.51431e+00,    7.47916e+00,    3.46462e+01
   3.00000e+03,    4.51505e+00,    7.46928e+00,    3.46612e+01
   3.01000e+03,    4.51577e+00,    7.45946e+00,    3.46763e+01
   3.02000e+03,    4.51650e+00,    7.44972e+00,    3.46913e+01
   3.03000e+03,    4.51722e+00,    7.44004e+00,    3.47062e+01
   3.04000e+03,    4.51794e+00,    7.43042e+00,    3.47211e+01
   3.05000e+03,    4.51865e+00,    7.42088e+00,    3.47359e+01
   3.06000e+03,    4.51936e+00,    7.41139e+00,    3.47507e+01
   3.07000e+03,    4.52007e+00,    7.40197e+00,    3.47654e+01
   3.08000e+03,    4.52077e+00,    7.39262e+00,    3.47801e+01
   3.09000e+03,    4.52147e+00,    7.38333e+00,    3.47948e+01
   3.10000e+03,    4.52217e+00,    7.37409e+00,    3.48094e+01
   3.11000e+03,    4.52287e+00,    7.36493e+00,    3.48240e+01
   3.12000e+03,    4.52356e+00,    7.35582e+00,    3.48385e+01
   3.13000e+03,    4.52425e+00,    7.34677e+00,    3.48530e+01
   3.14000e+03,    4.52494e+00,    7.33778e+00,    3.48674e+01
   3.15000e+03,    4.52562e+00,    7.32885e+00,    3.48818e+01
   3.16000e+03,    4.52630e+00,    7.31998e+00,    3.48961e+01
   3.17000e+03,    4.52698e+00,    7.31117e+00,    3.49104e+01
   3.18000e+03,    4.52766e+00,    7.30242e+00,    3.49247e+01
   3.19000e+03,    4.52833e+00,    7.29372e+00,    3.49389e+01
   3.20000e+03,    4.52900e+00,    7.28508e+00,    3.49531e+01
   3.21000e+03,    4.52967e+00,    7.27649e+00,    3.49672e+01
   3.22000e+03,    4.53034e+00,    7.26796e+00,    3.49813e+01
   3.23000e+03,    4.53100e+00,    7.25949e+00,    3.49954e+01
   3.24000e+03,    4.53166e+00,    7.25107e+00,    3.50094e+01
   3.25000e+03,    4.53232e+00,    7.24270e+00,    3.50233e+01
   3.26000e+03,    4.53298e+00,    7.23439e+00,    3.50373e+01
   3.27000e+03,    4.53363e+00,    7.22613e+00,    3.50511e+01
   3.28000e+03,    4.53429e+00,    7.21792e+00,    3.50650e+01
   3.29000e+03,    4.53494e+00,    7.20977e+00,    3.50788e+01
