# Cantera Thermodynamics
# Mechanism diatomic
# Computation done on 11-Feb-2020 23:49:38
# Species OH(X)
# Standard state T =    2.98150e+02 (K) P =    1.01325e+05 (Pa)
# C_P           2.98862e+01 (J/K mol)
# H             3.93439e+04 (J/mol)
# S             1.83739e+02 (J/K mol)
# C_P/R         3.59448e+00
# H/RT          1.58711e+01
# S/R           2.20987e+01
#     T            C_P/R           H/RT            S/R
   2.00000e+02,    3.67018e+00,    2.18801e+01,    2.06496e+01
   2.10000e+02,    3.65882e+00,    2.10127e+01,    2.08284e+01
   2.20000e+02,    3.64858e+00,    2.02236e+01,    2.09984e+01
   2.30000e+02,    3.63931e+00,    1.95028e+01,    2.11604e+01
   2.40000e+02,    3.63090e+00,    1.88416e+01,    2.13151e+01
   2.50000e+02,    3.62325e+00,    1.82330e+01,    2.14631e+01
   2.60000e+02,    3.61626e+00,    1.76710e+01,    2.16051e+01
   2.70000e+02,    3.60985e+00,    1.71503e+01,    2.17414e+01
   2.80000e+02,    3.60398e+00,    1.66666e+01,    2.18726e+01
   2.90000e+02,    3.59857e+00,    1.62161e+01,    2.19990e+01
   3.00000e+02,    3.59359e+00,    1.57954e+01,    2.21209e+01
   3.10000e+02,    3.58899e+00,    1.54018e+01,    2.22387e+01
   3.20000e+02,    3.58474e+00,    1.50325e+01,    2.23525e+01
   3.30000e+02,    3.58081e+00,    1.46856e+01,    2.24628e+01
   3.40000e+02,    3.57718e+00,    1.43589e+01,    2.25696e+01
   3.50000e+02,    3.57381e+00,    1.40508e+01,    2.26733e+01
   3.60000e+02,    3.57069e+00,    1.37597e+01,    2.27739e+01
   3.70000e+02,    3.56781e+00,    1.34843e+01,    2.28717e+01
   3.80000e+02,    3.56515e+00,    1.32233e+01,    2.29668e+01
   3.90000e+02,    3.56270e+00,    1.29756e+01,    2.30594e+01
   4.00000e+02,    3.56045e+00,    1.27403e+01,    2.31496e+01
   4.10000e+02,    3.55839e+00,    1.25164e+01,    2.32375e+01
   4.20000e+02,    3.55650e+00,    1.23031e+01,    2.33232e+01
   4.30000e+02,    3.55480e+00,    1.20996e+01,    2.34068e+01
   4.40000e+02,    3.55326e+00,    1.19054e+01,    2.34885e+01
   4.50000e+02,    3.55189e+00,    1.17198e+01,    2.35684e+01
   4.60000e+02,    3.55068e+00,    1.15422e+01,    2.36464e+01
   4.70000e+02,    3.54963e+00,    1.13722e+01,    2.37228e+01
   4.80000e+02,    3.54874e+00,    1.12092e+01,    2.37975e+01
   4.90000e+02,    3.54800e+00,    1.10529e+01,    2.38707e+01
   5.00000e+02,    3.54741e+00,    1.09027e+01,    2.39423e+01
   5.10000e+02,    3.54698e+00,    1.07585e+01,    2.40126e+01
   5.20000e+02,    3.54669e+00,    1.06198e+01,    2.40815e+01
   5.30000e+02,    3.54655e+00,    1.04864e+01,    2.41490e+01
   5.40000e+02,    3.54656e+00,    1.03579e+01,    2.42153e+01
   5.50000e+02,    3.54672e+00,    1.02340e+01,    2.42804e+01
   5.60000e+02,    3.54703e+00,    1.01146e+01,    2.43443e+01
   5.70000e+02,    3.54748e+00,    9.99939e+00,    2.44071e+01
   5.80000e+02,    3.54809e+00,    9.88816e+00,    2.44688e+01
   5.90000e+02,    3.54884e+00,    9.78070e+00,    2.45294e+01
   6.00000e+02,    3.54973e+00,    9.67685e+00,    2.45891e+01
   6.10000e+02,    3.55078e+00,    9.57641e+00,    2.46478e+01
   6.20000e+02,    3.55197e+00,    9.47923e+00,    2.47055e+01
   6.30000e+02,    3.55330e+00,    9.38516e+00,    2.47624e+01
   6.40000e+02,    3.55479e+00,    9.29405e+00,    2.48183e+01
   6.50000e+02,    3.55642e+00,    9.20576e+00,    2.48735e+01
   6.60000e+02,    3.55819e+00,    9.12018e+00,    2.49278e+01
   6.70000e+02,    3.56011e+00,    9.03718e+00,    2.49813e+01
   6.80000e+02,    3.56217e+00,    8.95665e+00,    2.50341e+01
   6.90000e+02,    3.56437e+00,    8.87849e+00,    2.50861e+01
   7.00000e+02,    3.56672e+00,    8.80259e+00,    2.51374e+01
   7.10000e+02,    3.56921e+00,    8.72886e+00,    2.51880e+01
   7.20000e+02,    3.57183e+00,    8.65721e+00,    2.52379e+01
   7.30000e+02,    3.57460e+00,    8.58757e+00,    2.52872e+01
   7.40000e+02,    3.57749e+00,    8.51985e+00,    2.53359e+01
   7.50000e+02,    3.58053e+00,    8.45397e+00,    2.53839e+01
   7.60000e+02,    3.58369e+00,    8.38987e+00,    2.54314e+01
   7.70000e+02,    3.58699e+00,    8.32747e+00,    2.54782e+01
   7.80000e+02,    3.59041e+00,    8.26672e+00,    2.55245e+01
   7.90000e+02,    3.59396e+00,    8.20754e+00,    2.55703e+01
   8.00000e+02,    3.59763e+00,    8.14990e+00,    2.56155e+01
   8.10000e+02,    3.60141e+00,    8.09372e+00,    2.56602e+01
   8.20000e+02,    3.60532e+00,    8.03896e+00,    2.57045e+01
   8.30000e+02,    3.60933e+00,    7.98557e+00,    2.57482e+01
   8.40000e+02,    3.61345e+00,    7.93349e+00,    2.57914e+01
   8.50000e+02,    3.61768e+00,    7.88269e+00,    2.58342e+01
   8.60000e+02,    3.62201e+00,    7.83312e+00,    2.58766e+01
   8.70000e+02,    3.62643e+00,    7.78475e+00,    2.59185e+01
   8.80000e+02,    3.63094e+00,    7.73752e+00,    2.59599e+01
   8.90000e+02,    3.63554e+00,    7.69140e+00,    2.60010e+01
   9.00000e+02,    3.64022e+00,    7.64636e+00,    2.60416e+01
   9.10000e+02,    3.64498e+00,    7.60237e+00,    2.60819e+01
   9.20000e+02,    3.64981e+00,    7.55938e+00,    2.61217e+01
   9.30000e+02,    3.65470e+00,    7.51737e+00,    2.61612e+01
   9.40000e+02,    3.65964e+00,    7.47630e+00,    2.62003e+01
   9.50000e+02,    3.66464e+00,    7.43615e+00,    2.62391e+01
   9.60000e+02,    3.66969e+00,    7.39689e+00,    2.62775e+01
   9.70000e+02,    3.67477e+00,    7.35849e+00,    2.63155e+01
   9.80000e+02,    3.67989e+00,    7.32093e+00,    2.63533e+01
   9.90000e+02,    3.68502e+00,    7.28418e+00,    2.63906e+01
   1.00000e+03,    3.69018e+00,    7.24821e+00,    2.64277e+01
   1.01000e+03,    3.69517e+00,    7.21301e+00,    2.64644e+01
   1.02000e+03,    3.70025e+00,    7.17854e+00,    2.65009e+01
   1.03000e+03,    3.70542e+00,    7.14480e+00,    2.65370e+01
   1.04000e+03,    3.71066e+00,    7.11175e+00,    2.65728e+01
   1.05000e+03,    3.71597e+00,    7.07939e+00,    2.66084e+01
   1.06000e+03,    3.72135e+00,    7.04768e+00,    2.66436e+01
   1.07000e+03,    3.72678e+00,    7.01662e+00,    2.66786e+01
   1.08000e+03,    3.73227e+00,    6.98618e+00,    2.67133e+01
   1.09000e+03,    3.73779e+00,    6.95636e+00,    2.67477e+01
   1.10000e+03,    3.74336e+00,    6.92712e+00,    2.67819e+01
   1.11000e+03,    3.74896e+00,    6.89846e+00,    2.68158e+01
   1.12000e+03,    3.75459e+00,    6.87037e+00,    2.68494e+01
   1.13000e+03,    3.76024e+00,    6.84282e+00,    2.68828e+01
   1.14000e+03,    3.76592e+00,    6.81581e+00,    2.69160e+01
   1.15000e+03,    3.77161e+00,    6.78931e+00,    2.69489e+01
   1.16000e+03,    3.77732e+00,    6.76332e+00,    2.69816e+01
   1.17000e+03,    3.78304e+00,    6.73782e+00,    2.70140e+01
   1.18000e+03,    3.78876e+00,    6.71281e+00,    2.70462e+01
   1.19000e+03,    3.79449e+00,    6.68826e+00,    2.70782e+01
   1.20000e+03,    3.80023e+00,    6.66417e+00,    2.71100e+01
   1.21000e+03,    3.80596e+00,    6.64052e+00,    2.71416e+01
   1.22000e+03,    3.81168e+00,    6.61731e+00,    2.71729e+01
   1.23000e+03,    3.81740e+00,    6.59453e+00,    2.72041e+01
   1.24000e+03,    3.82312e+00,    6.57215e+00,    2.72350e+01
   1.25000e+03,    3.82882e+00,    6.55018e+00,    2.72657e+01
   1.26000e+03,    3.83451e+00,    6.52861e+00,    2.72962e+01
   1.27000e+03,    3.84019e+00,    6.50742e+00,    2.73266e+01
   1.28000e+03,    3.84586e+00,    6.48660e+00,    2.73567e+01
   1.29000e+03,    3.85151e+00,    6.46615e+00,    2.73867e+01
   1.30000e+03,    3.85714e+00,    6.44606e+00,    2.74164e+01
   1.31000e+03,    3.86275e+00,    6.42632e+00,    2.74460e+01
   1.32000e+03,    3.86834e+00,    6.40692e+00,    2.74754e+01
   1.33000e+03,    3.87391e+00,    6.38785e+00,    2.75046e+01
   1.34000e+03,    3.87946e+00,    6.36911e+00,    2.75337e+01
   1.35000e+03,    3.88499e+00,    6.35069e+00,    2.75625e+01
   1.36000e+03,    3.89049e+00,    6.33258e+00,    2.75912e+01
   1.37000e+03,    3.89597e+00,    6.31478e+00,    2.76197e+01
   1.38000e+03,    3.90142e+00,    6.29727e+00,    2.76481e+01
   1.39000e+03,    3.90685e+00,    6.28005e+00,    2.76763e+01
   1.40000e+03,    3.91225e+00,    6.26312e+00,    2.77043e+01
   1.41000e+03,    3.91762e+00,    6.24647e+00,    2.77322e+01
   1.42000e+03,    3.92296e+00,    6.23008e+00,    2.77599e+01
   1.43000e+03,    3.92827e+00,    6.21397e+00,    2.77874e+01
   1.44000e+03,    3.93356e+00,    6.19812e+00,    2.78148e+01
   1.45000e+03,    3.93882e+00,    6.18252e+00,    2.78421e+01
   1.46000e+03,    3.94404e+00,    6.16717e+00,    2.78692e+01
   1.47000e+03,    3.94924e+00,    6.15206e+00,    2.78961e+01
   1.48000e+03,    3.95441e+00,    6.13719e+00,    2.79229e+01
   1.49000e+03,    3.95955e+00,    6.12256e+00,    2.79495e+01
   1.50000e+03,    3.96465e+00,    6.10816e+00,    2.79760e+01
   1.51000e+03,    3.96973e+00,    6.09398e+00,    2.80024e+01
   1.52000e+03,    3.97477e+00,    6.08002e+00,    2.80286e+01
   1.53000e+03,    3.97978e+00,    6.06628e+00,    2.80547e+01
   1.54000e+03,    3.98477e+00,    6.05275e+00,    2.80806e+01
   1.55000e+03,    3.98972e+00,    6.03942e+00,    2.81064e+01
   1.56000e+03,    3.99463e+00,    6.02630e+00,    2.81321e+01
   1.57000e+03,    3.99952e+00,    6.01337e+00,    2.81577e+01
   1.58000e+03,    4.00438e+00,    6.00064e+00,    2.81831e+01
   1.59000e+03,    4.00920e+00,    5.98810e+00,    2.82083e+01
   1.60000e+03,    4.01399e+00,    5.97575e+00,    2.82335e+01
   1.61000e+03,    4.01876e+00,    5.96358e+00,    2.82585e+01
   1.62000e+03,    4.02349e+00,    5.95159e+00,    2.82834e+01
   1.63000e+03,    4.02818e+00,    5.93977e+00,    2.83082e+01
   1.64000e+03,    4.03285e+00,    5.92813e+00,    2.83328e+01
   1.65000e+03,    4.03749e+00,    5.91666e+00,    2.83574e+01
   1.66000e+03,    4.04209e+00,    5.90535e+00,    2.83818e+01
   1.67000e+03,    4.04666e+00,    5.89421e+00,    2.84061e+01
   1.68000e+03,    4.05121e+00,    5.88322e+00,    2.84303e+01
   1.69000e+03,    4.05572e+00,    5.87240e+00,    2.84543e+01
   1.70000e+03,    4.06020e+00,    5.86172e+00,    2.84782e+01
   1.71000e+03,    4.06465e+00,    5.85120e+00,    2.85021e+01
   1.72000e+03,    4.06907e+00,    5.84083e+00,    2.85258e+01
   1.73000e+03,    4.07346e+00,    5.83060e+00,    2.85494e+01
   1.74000e+03,    4.07782e+00,    5.82051e+00,    2.85729e+01
   1.75000e+03,    4.08215e+00,    5.81057e+00,    2.85963e+01
   1.76000e+03,    4.08645e+00,    5.80076e+00,    2.86195e+01
   1.77000e+03,    4.09072e+00,    5.79109e+00,    2.86427e+01
   1.78000e+03,    4.09496e+00,    5.78155e+00,    2.86658e+01
   1.79000e+03,    4.09917e+00,    5.77213e+00,    2.86887e+01
   1.80000e+03,    4.10335e+00,    5.76285e+00,    2.87116e+01
   1.81000e+03,    4.10751e+00,    5.75370e+00,    2.87343e+01
   1.82000e+03,    4.11163e+00,    5.74466e+00,    2.87569e+01
   1.83000e+03,    4.11573e+00,    5.73575e+00,    2.87795e+01
   1.84000e+03,    4.11979e+00,    5.72696e+00,    2.88019e+01
   1.85000e+03,    4.12383e+00,    5.71828e+00,    2.88243e+01
   1.86000e+03,    4.12785e+00,    5.70972e+00,    2.88465e+01
   1.87000e+03,    4.13183e+00,    5.70127e+00,    2.88687e+01
   1.88000e+03,    4.13579e+00,    5.69293e+00,    2.88907e+01
   1.89000e+03,    4.13972e+00,    5.68470e+00,    2.89127e+01
   1.90000e+03,    4.14362e+00,    5.67658e+00,    2.89345e+01
   1.91000e+03,    4.14750e+00,    5.66857e+00,    2.89563e+01
   1.92000e+03,    4.15135e+00,    5.66065e+00,    2.89779e+01
   1.93000e+03,    4.15517e+00,    5.65284e+00,    2.89995e+01
   1.94000e+03,    4.15897e+00,    5.64513e+00,    2.90210e+01
   1.95000e+03,    4.16274e+00,    5.63752e+00,    2.90424e+01
   1.96000e+03,    4.16648e+00,    5.63001e+00,    2.90637e+01
   1.97000e+03,    4.17020e+00,    5.62259e+00,    2.90849e+01
   1.98000e+03,    4.17390e+00,    5.61526e+00,    2.91060e+01
   1.99000e+03,    4.17757e+00,    5.60803e+00,    2.91271e+01
   2.00000e+03,    4.18121e+00,    5.60088e+00,    2.91480e+01
   2.01000e+03,    4.18483e+00,    5.59383e+00,    2.91689e+01
   2.02000e+03,    4.18843e+00,    5.58686e+00,    2.91897e+01
   2.03000e+03,    4.19200e+00,    5.57998e+00,    2.92103e+01
   2.04000e+03,    4.19555e+00,    5.57319e+00,    2.92310e+01
   2.05000e+03,    4.19907e+00,    5.56648e+00,    2.92515e+01
   2.06000e+03,    4.20257e+00,    5.55985e+00,    2.92719e+01
   2.07000e+03,    4.20605e+00,    5.55330e+00,    2.92923e+01
   2.08000e+03,    4.20950e+00,    5.54683e+00,    2.93126e+01
   2.09000e+03,    4.21294e+00,    5.54044e+00,    2.93328e+01
   2.10000e+03,    4.21635e+00,    5.53413e+00,    2.93529e+01
   2.11000e+03,    4.21973e+00,    5.52789e+00,    2.93729e+01
   2.12000e+03,    4.22310e+00,    5.52173e+00,    2.93929e+01
   2.13000e+03,    4.22644e+00,    5.51564e+00,    2.94128e+01
   2.14000e+03,    4.22976e+00,    5.50962e+00,    2.94326e+01
   2.15000e+03,    4.23306e+00,    5.50368e+00,    2.94523e+01
   2.16000e+03,    4.23634e+00,    5.49780e+00,    2.94719e+01
   2.17000e+03,    4.23960e+00,    5.49200e+00,    2.94915e+01
   2.18000e+03,    4.24283e+00,    5.48626e+00,    2.95110e+01
   2.19000e+03,    4.24605e+00,    5.48059e+00,    2.95304e+01
   2.20000e+03,    4.24924e+00,    5.47498e+00,    2.95498e+01
   2.21000e+03,    4.25242e+00,    5.46944e+00,    2.95691e+01
   2.22000e+03,    4.25557e+00,    5.46397e+00,    2.95883e+01
   2.23000e+03,    4.25871e+00,    5.45856e+00,    2.96074e+01
   2.24000e+03,    4.26183e+00,    5.45321e+00,    2.96265e+01
   2.25000e+03,    4.26492e+00,    5.44792e+00,    2.96455e+01
   2.26000e+03,    4.26800e+00,    5.44269e+00,    2.96644e+01
   2.27000e+03,    4.27106e+00,    5.43752e+00,    2.96832e+01
   2.28000e+03,    4.27410e+00,    5.43241e+00,    2.97020e+01
   2.29000e+03,    4.27712e+00,    5.42736e+00,    2.97207e+01
   2.30000e+03,    4.28012e+00,    5.42237e+00,    2.97394e+01
   2.31000e+03,    4.28311e+00,    5.41743e+00,    2.97579e+01
   2.32000e+03,    4.28607e+00,    5.41255e+00,    2.97764e+01
   2.33000e+03,    4.28902e+00,    5.40772e+00,    2.97949e+01
   2.34000e+03,    4.29195e+00,    5.40294e+00,    2.98133e+01
   2.35000e+03,    4.29486e+00,    5.39822e+00,    2.98316e+01
   2.36000e+03,    4.29776e+00,    5.39355e+00,    2.98498e+01
   2.37000e+03,    4.30064e+00,    5.38894e+00,    2.98680e+01
   2.38000e+03,    4.30350e+00,    5.38437e+00,    2.98861e+01
   2.39000e+03,    4.30635e+00,    5.37985e+00,    2.99042e+01
   2.40000e+03,    4.30918e+00,    5.37539e+00,    2.99221e+01
   2.41000e+03,    4.31199e+00,    5.37097e+00,    2.99401e+01
   2.42000e+03,    4.31479e+00,    5.36660e+00,    2.99579e+01
   2.43000e+03,    4.31757e+00,    5.36228e+00,    2.99757e+01
   2.44000e+03,    4.32033e+00,    5.35800e+00,    2.99935e+01
   2.45000e+03,    4.32308e+00,    5.35377e+00,    3.00111e+01
   2.46000e+03,    4.32581e+00,    5.34959e+00,    3.00288e+01
   2.47000e+03,    4.32853e+00,    5.34545e+00,    3.00463e+01
   2.48000e+03,    4.33123e+00,    5.34135e+00,    3.00638e+01
   2.49000e+03,    4.33392e+00,    5.33730e+00,    3.00812e+01
   2.50000e+03,    4.33659e+00,    5.33329e+00,    3.00986e+01
   2.51000e+03,    4.33925e+00,    5.32933e+00,    3.01159e+01
   2.52000e+03,    4.34190e+00,    5.32540e+00,    3.01332e+01
   2.53000e+03,    4.34453e+00,    5.32152e+00,    3.01504e+01
   2.54000e+03,    4.34714e+00,    5.31768e+00,    3.01675e+01
   2.55000e+03,    4.34974e+00,    5.31388e+00,    3.01846e+01
   2.56000e+03,    4.35233e+00,    5.31012e+00,    3.02016e+01
   2.57000e+03,    4.35491e+00,    5.30639e+00,    3.02186e+01
   2.58000e+03,    4.35747e+00,    5.30271e+00,    3.02355e+01
   2.59000e+03,    4.36001e+00,    5.29907e+00,    3.02524e+01
   2.60000e+03,    4.36255e+00,    5.29546e+00,    3.02692e+01
   2.61000e+03,    4.36507e+00,    5.29189e+00,    3.02860e+01
   2.62000e+03,    4.36758e+00,    5.28836e+00,    3.03027e+01
   2.63000e+03,    4.37007e+00,    5.28486e+00,    3.03193e+01
   2.64000e+03,    4.37255e+00,    5.28140e+00,    3.03359e+01
   2.65000e+03,    4.37502e+00,    5.27798e+00,    3.03524e+01
   2.66000e+03,    4.37748e+00,    5.27459e+00,    3.03689e+01
   2.67000e+03,    4.37992e+00,    5.27123e+00,    3.03853e+01
   2.68000e+03,    4.38236e+00,    5.26791e+00,    3.04017e+01
   2.69000e+03,    4.38478e+00,    5.26462e+00,    3.04180e+01
   2.70000e+03,    4.38719e+00,    5.26137e+00,    3.04343e+01
   2.71000e+03,    4.38959e+00,    5.25815e+00,    3.04505e+01
   2.72000e+03,    4.39197e+00,    5.25496e+00,    3.04667e+01
   2.73000e+03,    4.39435e+00,    5.25180e+00,    3.04828e+01
   2.74000e+03,    4.39671e+00,    5.24868e+00,    3.04989e+01
   2.75000e+03,    4.39906e+00,    5.24558e+00,    3.05149e+01
   2.76000e+03,    4.40140e+00,    5.24252e+00,    3.05309e+01
   2.77000e+03,    4.40373e+00,    5.23949e+00,    3.05468e+01
   2.78000e+03,    4.40605e+00,    5.23649e+00,    3.05627e+01
   2.79000e+03,    4.40836e+00,    5.23351e+00,    3.05785e+01
   2.80000e+03,    4.41066e+00,    5.23057e+00,    3.05943e+01
   2.81000e+03,    4.41294e+00,    5.22766e+00,    3.06100e+01
   2.82000e+03,    4.41522e+00,    5.22477e+00,    3.06257e+01
   2.83000e+03,    4.41749e+00,    5.22191e+00,    3.06413e+01
   2.84000e+03,    4.41975e+00,    5.21909e+00,    3.06569e+01
   2.85000e+03,    4.42199e+00,    5.21629e+00,    3.06725e+01
   2.86000e+03,    4.42423e+00,    5.21351e+00,    3.06880e+01
   2.87000e+03,    4.42646e+00,    5.21077e+00,    3.07034e+01
   2.88000e+03,    4.42867e+00,    5.20805e+00,    3.07188e+01
   2.89000e+03,    4.43088e+00,    5.20535e+00,    3.07342e+01
   2.90000e+03,    4.43308e+00,    5.20269e+00,    3.07495e+01
   2.91000e+03,    4.43527e+00,    5.20005e+00,    3.07647e+01
   2.92000e+03,    4.43745e+00,    5.19743e+00,    3.07799e+01
   2.93000e+03,    4.43962e+00,    5.19484e+00,    3.07951e+01
   2.94000e+03,    4.44178e+00,    5.19227e+00,    3.08103e+01
   2.95000e+03,    4.44394e+00,    5.18973e+00,    3.08253e+01
   2.96000e+03,    4.44608e+00,    5.18722e+00,    3.08404e+01
   2.97000e+03,    4.44822e+00,    5.18473e+00,    3.08554e+01
   2.98000e+03,    4.45034e+00,    5.18226e+00,    3.08703e+01
   2.99000e+03,    4.45246e+00,    5.17981e+00,    3.08852e+01
   3.00000e+03,    4.45457e+00,    5.17739e+00,    3.09001e+01
   3.01000e+03,    4.45667e+00,    5.17500e+00,    3.09149e+01
   3.02000e+03,    4.45877e+00,    5.17262e+00,    3.09297e+01
   3.03000e+03,    4.46085e+00,    5.17027e+00,    3.09445e+01
   3.04000e+03,    4.46293e+00,    5.16794e+00,    3.09592e+01
   3.05000e+03,    4.46500e+00,    5.16563e+00,    3.09738e+01
   3.06000e+03,    4.46706e+00,    5.16334e+00,    3.09885e+01
   3.07000e+03,    4.46911e+00,    5.16108e+00,    3.10030e+01
   3.08000e+03,    4.47116e+00,    5.15884e+00,    3.10176e+01
   3.09000e+03,    4.47320e+00,    5.15661e+00,    3.10321e+01
   3.10000e+03,    4.47523e+00,    5.15441e+00,    3.10465e+01
   3.11000e+03,    4.47725e+00,    5.15223e+00,    3.10609e+01
   3.12000e+03,    4.47927e+00,    5.15007e+00,    3.10753e+01
   3.13000e+03,    4.48128e+00,    5.14793e+00,    3.10897e+01
   3.14000e+03,    4.48328e+00,    5.14581e+00,    3.11039e+01
   3.15000e+03,    4.48527e+00,    5.14371e+00,    3.11182e+01
   3.16000e+03,    4.48726e+00,    5.14163e+00,    3.11324e+01
   3.17000e+03,    4.48924e+00,    5.13957e+00,    3.11466e+01
   3.18000e+03,    4.49122e+00,    5.13753e+00,    3.11608e+01
   3.19000e+03,    4.49318e+00,    5.13550e+00,    3.11749e+01
   3.20000e+03,    4.49514e+00,    5.13350e+00,    3.11889e+01
   3.21000e+03,    4.49710e+00,    5.13151e+00,    3.12030e+01
   3.22000e+03,    4.49904e+00,    5.12955e+00,    3.12169e+01
   3.23000e+03,    4.50098e+00,    5.12760e+00,    3.12309e+01
   3.24000e+03,    4.50292e+00,    5.12567e+00,    3.12448e+01
   3.25000e+03,    4.50484e+00,    5.12375e+00,    3.12587e+01
   3.26000e+03,    4.50676e+00,    5.12186e+00,    3.12725e+01
   3.27000e+03,    4.50868e+00,    5.11998e+00,    3.12863e+01
   3.28000e+03,    4.51059e+00,    5.11812e+00,    3.13001e+01
   3.29000e+03,    4.51249e+00,    5.11628e+00,    3.13138e+01
